Underground Cross Section
Post-Project, Mile 7.65 to Mile 7.88
XC_UND.FLD

 DIST    B Horz   B Vert   B PROD    B MAX   E Horz   E Vert   E PROD    E MAX
 (Ft)     (mG)     (mG)     (mG)      (mG)   (kV/m)   (kV/m)   (kV/m)   (V/m)
 ----    ------   ------   ------    -----   ------   ------   ------   ------
-150.00   10.230    2.048   10.433   10.321    0.012    0.298    0.298    0.298
-149.00   10.362    2.101   10.573   10.458    0.012    0.302    0.302    0.302
-148.00   10.497    2.155   10.716   10.597    0.012    0.306    0.306    0.306
-147.00   10.634    2.211   10.861   10.740    0.012    0.310    0.310    0.310
-146.00   10.773    2.268   11.009   10.885    0.013    0.314    0.315    0.315
-145.00   10.915    2.328   11.161   11.033    0.013    0.319    0.319    0.319
-144.00   11.060    2.389   11.315   11.184    0.013    0.323    0.323    0.323
-143.00   11.208    2.452   11.473   11.338    0.013    0.327    0.328    0.328
-142.00   11.358    2.518   11.634   11.496    0.014    0.332    0.332    0.332
-141.00   11.512    2.585   11.799   11.656    0.014    0.337    0.337    0.337
-140.00   11.668    2.655   11.967   11.820    0.014    0.341    0.342    0.342
-139.00   11.828    2.727   12.138   11.988    0.015    0.346    0.346    0.346
-138.00   11.991    2.801   12.313   12.159    0.015    0.351    0.351    0.351
-137.00   12.157    2.877   12.493   12.334    0.015    0.356    0.356    0.356
-136.00   12.326    2.957   12.676   12.512    0.015    0.361    0.361    0.361
-135.00   12.499    3.038   12.863   12.694    0.016    0.366    0.367    0.367
-134.00   12.675    3.123   13.054   12.881    0.016    0.371    0.372    0.372
-133.00   12.854    3.210   13.249   13.071    0.016    0.377    0.377    0.377
-132.00   13.038    3.300   13.449   13.266    0.017    0.382    0.383    0.383
-131.00   13.225    3.393   13.653   13.465    0.017    0.388    0.388    0.388
-130.00   13.416    3.490   13.863   13.668    0.017    0.394    0.394    0.394
-129.00   13.611    3.590   14.076   13.876    0.018    0.400    0.400    0.400
-128.00   13.810    3.693   14.295   14.089    0.018    0.406    0.406    0.406
-127.00   14.013    3.799   14.519   14.307    0.019    0.412    0.412    0.412
-126.00   14.221    3.910   14.748   14.529    0.019    0.418    0.418    0.418
-125.00   14.433    4.024   14.983   14.757    0.019    0.424    0.425    0.425
-124.00   14.649    4.142   15.223   14.990    0.020    0.431    0.431    0.431
-123.00   14.870    4.264   15.469   15.229    0.020    0.437    0.438    0.438
-122.00   15.096    4.391   15.721   15.474    0.021    0.444    0.445    0.445
-121.00   15.327    4.522   15.980   15.724    0.021    0.451    0.451    0.451
-120.00   15.562    4.658   16.244   15.980    0.021    0.458    0.458    0.458
-119.00   15.803    4.798   16.515   16.243    0.022    0.465    0.466    0.466
-118.00   16.049    4.944   16.793   16.512    0.022    0.472    0.473    0.473
-117.00   16.301    5.095   17.078   16.788    0.023    0.480    0.481    0.481
-116.00   16.558    5.252   17.371   17.070    0.023    0.488    0.488    0.488
-115.00   16.821    5.414   17.670   17.360    0.024    0.495    0.496    0.496
-114.00   17.089    5.582   17.978   17.657    0.024    0.503    0.504    0.504
-113.00   17.364    5.757   18.293   17.961    0.025    0.512    0.512    0.512
-112.00   17.645    5.938   18.617   18.274    0.025    0.520    0.521    0.520
-111.00   17.932    6.126   18.950   18.594    0.026    0.528    0.529    0.529
-110.00   18.226    6.321   19.291   18.923    0.027    0.537    0.538    0.538
-109.00   18.527    6.524   19.642   19.261    0.027    0.546    0.547    0.547
-108.00   18.834    6.734   20.002   19.608    0.028    0.555    0.556    0.556
-107.00   19.149    6.953   20.372   19.963    0.028    0.564    0.565    0.565
-106.00   19.471    7.179   20.752   20.329    0.029    0.574    0.574    0.574
-105.00   19.800    7.415   21.143   20.704    0.030    0.583    0.584    0.584
-104.00   20.137    7.660   21.545   21.090    0.030    0.593    0.594    0.594
-103.00   20.483    7.915   21.959   21.487    0.031    0.603    0.604    0.604
-102.00   20.836    8.180   22.384   21.895    0.032    0.614    0.614    0.614
-101.00   21.197    8.456   22.822   22.314    0.033    0.624    0.625    0.625
-100.00   21.568    8.743   23.272   22.745    0.033    0.635    0.636    0.636
 -99.00   21.947    9.041   23.736   23.188    0.034    0.646    0.647    0.647
 -98.00   22.335    9.352   24.214   23.645    0.035    0.657    0.658    0.658
 -97.00   22.732    9.675   24.706   24.114    0.036    0.669    0.670    0.670
 -96.00   23.139   10.012   25.212   24.598    0.037    0.680    0.681    0.681
 -95.00   23.556   10.363   25.735   25.096    0.037    0.692    0.693    0.693
 -94.00   23.983   10.729   26.274   25.609    0.038    0.705    0.706    0.706
 -93.00   24.420   11.110   26.829   26.137    0.039    0.717    0.718    0.718
 -92.00   24.868   11.508   27.402   26.682    0.040    0.730    0.731    0.731
 -91.00   25.327   11.923   27.993   27.244    0.041    0.743    0.744    0.744
 -90.00   25.798   12.356   28.604   27.823    0.042    0.756    0.757    0.757
 -89.00   26.279   12.807   29.234   28.420    0.043    0.770    0.771    0.771
 -88.00   26.773   13.278   29.885   29.036    0.044    0.784    0.785    0.785
 -87.00   27.278   13.771   30.557   29.672    0.046    0.798    0.799    0.799
 -86.00   27.796   14.285   31.252   30.329    0.047    0.812    0.813    0.813
 -85.00   28.327   14.822   31.970   31.007    0.048    0.827    0.828    0.828
 -84.00   28.870   15.384   32.713   31.708    0.049    0.842    0.843    0.843
 -83.00   29.427   15.971   33.482   32.432    0.051    0.857    0.859    0.858
 -82.00   29.998   16.585   34.277   33.180    0.052    0.873    0.874    0.874
 -81.00   30.582   17.227   35.101   33.954    0.053    0.889    0.890    0.890
 -80.00   31.181   17.899   35.953   34.754    0.055    0.905    0.907    0.906
 -79.00   31.794   18.603   36.837   35.582    0.057    0.922    0.923    0.923
 -78.00   32.422   19.339   37.752   36.439    0.058    0.939    0.940    0.940
 -77.00   33.065   20.111   38.701   37.326    0.060    0.956    0.958    0.957
 -76.00   33.724   20.920   39.686   38.246    0.062    0.973    0.975    0.975
 -75.00   34.398   21.767   40.707   39.198    0.064    0.991    0.993    0.993
 -74.00   35.088   22.656   41.767   40.185    0.067    1.009    1.012    1.011
 -73.00   35.794   23.588   42.867   41.209    0.069    1.028    1.030    1.029
 -72.00   36.516   24.566   44.011   42.270    0.072    1.047    1.049    1.048
 -71.00   37.255   25.593   45.198   43.372    0.074    1.066    1.069    1.068
 -70.00   38.010   26.670   46.433   44.515    0.077    1.086    1.088    1.087
 -69.00   38.782   27.802   47.718   45.703    0.081    1.105    1.108    1.107
 -68.00   39.571   28.991   49.054   46.936    0.084    1.126    1.129    1.127
 -67.00   40.376   30.240   50.445   48.218    0.088    1.146    1.150    1.148
 -66.00   41.198   31.553   51.893   49.550    0.093    1.167    1.171    1.169
 -65.00   42.037   32.934   53.402   50.936    0.098    1.189    1.193    1.191
 -64.00   42.892   34.386   54.974   52.378    0.103    1.211    1.215    1.213
 -63.00   43.764   35.914   56.613   53.879    0.109    1.233    1.238    1.235
 -62.00   44.651   37.522   58.323   55.442    0.115    1.256    1.261    1.258
 -61.00   45.554   39.215   60.108   57.070    0.122    1.280    1.285    1.281
 -60.00   46.472   40.997   61.971   58.766    0.130    1.304    1.310    1.306
 -59.00   47.404   42.874   63.916   60.535    0.139    1.328    1.336    1.331
 -58.00   48.349   44.852   65.949   62.380    0.148    1.354    1.362    1.356
 -57.00   49.307   46.936   68.075   64.305    0.159    1.381    1.390    1.383
 -56.00   50.277   49.132   70.297   66.314    0.171    1.408    1.419    1.411
 -55.00   51.257   51.447   72.622   68.411    0.184    1.437    1.449    1.440
 -54.00   52.246   53.887   75.056   70.603    0.198    1.468    1.481    1.471
 -53.00   53.242   56.460   77.604   72.893    0.215    1.500    1.515    1.503
 -52.00   54.245   59.173   80.274   75.287    0.232    1.535    1.552    1.538
 -51.00   55.251   62.033   83.071   77.791    0.252    1.572    1.592    1.576
 -50.00   56.260   65.050   86.004   80.410    0.274    1.612    1.635    1.617
 -49.00   57.269   68.230   89.079   83.151    0.298    1.656    1.683    1.662
 -48.00   58.277   71.583   92.306   86.020    0.325    1.705    1.735    1.712
 -47.00   59.282   75.116   95.691   89.025    0.354    1.759    1.794    1.767
 -46.00   60.282   78.840   99.245   92.172    0.387    1.819    1.860    1.829
 -45.00   61.277   82.761  102.977   95.469    0.423    1.887    1.934    1.899
 -44.00   62.266   86.890  106.896   98.924    0.463    1.963    2.017    1.979
 -43.00   63.250   91.233  111.013  102.545    0.506    2.050    2.112    2.070
 -42.00   64.231   95.799  115.338  106.340    0.555    2.149    2.220    2.173
 -41.00   65.214  100.594  119.883  110.317    0.608    2.262    2.342    2.292
 -40.00   66.207  105.623  124.658  114.486    0.666    2.391    2.482    2.428
 -39.00   67.222  110.892  129.676  118.855    0.730    2.538    2.641    2.583
 -38.00   68.275  116.402  134.948  123.433    0.800    2.705    2.821    2.760
 -37.00   69.390  122.152  140.485  128.229    0.877    2.895    3.025    2.961
 -36.00   70.601  128.139  146.301  133.250    0.960    3.111    3.256    3.190
 -35.00   71.950  134.353  152.406  138.504    1.051    3.355    3.516    3.448
 -34.00   73.493  140.782  158.811  143.998    1.150    3.630    3.808    3.739
 -33.00   75.302  147.406  165.527  149.737    1.256    3.939    4.134    4.064
 -32.00   77.464  154.198  172.563  155.727    1.370    4.285    4.498    4.428
 -31.00   80.083  161.122  179.926  161.969    1.491    4.670    4.902    4.831
 -30.00   83.277  168.130  187.624  168.463    1.620    5.098    5.349    5.278
 -29.00   87.177  175.164  195.658  175.206    1.755    5.571    5.841    5.770
 -28.00   91.920  182.151  204.030  182.190    1.896    6.091    6.379    6.309
 -27.00   97.638  189.005  212.734  189.404    2.040    6.660    6.966    6.896
 -26.00  104.456  195.622  221.764  196.831    2.185    7.280    7.601    7.532
 -25.00  112.474  201.885  231.102  204.446    2.329    7.951    8.285    8.216
 -24.00  121.762  207.663  240.728  212.217    2.468    8.673    9.017    8.948
 -23.00  132.352  212.811  250.611  220.104    2.597    9.442    9.793    9.725
 -22.00  144.228  217.184  260.712  228.055    2.713   10.256   10.609   10.541
 -21.00  157.317  220.639  270.980  236.009    2.808   11.109   11.458   11.390
 -20.00  171.485  223.053  281.353  243.889    2.878   11.991   12.332   12.263
 -19.00  186.528  224.343  291.758  251.611    2.917   12.893   13.218   13.148
 -18.00  202.168  224.492  302.107  259.075    2.920   13.799   14.104   14.032
 -17.00  218.050  223.576  312.301  266.171    2.884   14.693   14.973   14.898
 -16.00  233.743  221.807  322.233  272.780    2.812   15.554   15.806   15.726
 -15.00  248.754  219.552  331.785  278.779    2.711   16.361   16.584   16.498
 -14.00  262.545  217.351  340.839  284.043    2.595   17.090   17.286   17.191
 -13.00  274.564  215.890  349.276  288.454    2.490   17.719   17.893   17.785
 -12.00  284.282  215.924  356.986  291.907    2.435   18.225   18.386   18.262
 -11.00  291.245  218.126  363.872  294.321    2.465   18.591   18.754   18.607
 -10.00  295.130  222.919  369.858  295.650    2.607   18.807   18.987   18.811
  -9.00  295.790  230.328  374.891  295.892    2.859   18.871   19.086   18.871
  -8.00  293.309  239.936  378.945  295.113    3.192   18.790   19.059   18.795
  -7.00  288.030  250.957  382.022  293.486    3.570   18.584   18.924   18.598
  -6.00  280.578  262.379  384.144  291.357    3.954   18.283   18.706   18.306
  -5.00  271.847  273.124  385.353  289.383    4.311   17.928   18.439   17.956
  -4.00  262.957  282.169  385.701  288.547    4.612   17.567   18.163   17.592
  -3.00  255.154  288.632  385.243  289.569    4.837   17.250   17.916   17.266
  -2.00  249.639  291.819  384.028  292.132    4.969   17.023   17.734   17.029
  -1.00  247.340  291.243  382.098  295.404    5.000   16.920   17.643   16.920
   0.00  248.690  286.636  379.482  298.749    4.924   16.957   17.657   16.960
   1.00  253.510  277.951  376.197  301.792    4.741   17.127   17.771   17.141
   2.00  261.060  265.365  372.251  304.316    4.457   17.406   17.967   17.430
   3.00  270.232  249.274  367.645  306.184    4.083   17.751   18.214   17.781
   4.00  279.794  230.297  362.383  307.309    3.634   18.115   18.475   18.142
   5.00  288.584  209.267  356.473  307.640    3.132   18.447   18.711   18.467
   6.00  295.637  187.224  349.934  307.152    2.605   18.705   18.886   18.715
   7.00  300.249  165.401  342.793  305.842    2.093   18.854   18.970   18.856
   8.00  301.995  145.184  335.081  303.719    1.649   18.871   18.943   18.871
   9.00  300.713  128.012  326.826  300.785    1.352   18.743   18.792   18.750
  10.00  296.461  115.129  318.031  297.011    1.278   18.469   18.513   18.492
  11.00  289.456  107.153  308.653  292.309    1.408   18.057   18.112   18.103
  12.00  279.995  103.695  298.579  286.496    1.642   17.521   17.598   17.595
  13.00  268.358  103.466  287.613  279.276    1.892   16.881   16.986   16.986
  14.00  254.723  104.917  275.483  270.258    2.115   16.157   16.294   16.294
  15.00  239.112  106.910  261.924  259.060    2.291   15.371   15.541   15.538
  16.00  221.457  109.020  246.837  245.527    2.416   14.546   14.745   14.739
  17.00  201.814  111.429  230.533  230.043    2.490   13.700   13.924   13.914
  18.00  180.680  114.540  213.927  213.741    2.518   12.849   13.093   13.079
  19.00  159.144  118.579  198.464  198.306    2.505   12.007   12.266   12.248
  20.00  138.598  123.473  185.620  185.264    2.460   11.186   11.453   11.433
  21.00  120.131  128.892  176.195  175.323    2.389   10.394   10.665   10.641
  22.00  104.130  134.313  169.951  168.341    2.298    9.637    9.907    9.881
  23.00   90.389  139.121  165.907  163.680    2.193    8.918    9.184    9.157
  24.00   78.484  142.799  162.946  160.485    2.079    8.241    8.500    8.471
  25.00   68.035  145.074  160.235  157.918    1.960    7.607    7.855    7.826
  26.00   58.771  145.928  157.318  155.367    1.840    7.014    7.252    7.222
  27.00   50.500  145.513  154.027  152.509    1.719    6.464    6.688    6.659
  28.00   43.084  144.056  150.361  149.248    1.602    5.953    6.165    6.136
  29.00   36.411  141.793  146.393  145.617    1.489    5.481    5.679    5.651
  30.00   30.391  138.933  142.218  141.702    1.380    5.045    5.231    5.203
  31.00   24.949  135.652  137.927  137.600    1.278    4.644    4.816    4.789
  32.00   20.023  132.084  133.593  133.399    1.181    4.274    4.434    4.408
  33.00   15.562  128.336  129.276  129.171    1.091    3.934    4.083    4.057
  34.00   11.523  124.487  125.019  124.969    1.006    3.622    3.759    3.735
  35.00    7.869  120.596  120.852  120.834    0.928    3.336    3.462    3.439
  36.00    4.573  116.707  116.797  116.793    0.856    3.073    3.190    3.167
  37.00    1.656  112.855  112.867  112.867    0.789    2.832    2.940    2.918
  38.00    1.331  109.062  109.070  109.066    0.727    2.611    2.711    2.690
  39.00    3.669  105.346  105.410  105.397    0.670    2.409    2.500    2.480
  40.00    5.848  101.721  101.889  101.864    0.618    2.224    2.308    2.289
  41.00    7.816   98.194   98.504   98.467    0.570    2.054    2.131    2.113
  42.00    9.585   94.771   95.255   95.204    0.525    1.899    1.970    1.952
  43.00   11.171   91.457   92.136   92.073    0.485    1.757    1.822    1.805
  44.00   12.589   88.252   89.145   89.070    0.447    1.627    1.687    1.670
  45.00   13.852   85.157   86.277   86.190    0.413    1.508    1.564    1.548
  46.00   14.975   82.173   83.526   83.430    0.382    1.400    1.451    1.435
  47.00   15.969   79.297   80.889   80.784    0.353    1.301    1.348    1.333
  48.00   16.847   76.528   78.360   78.247    0.326    1.211    1.255    1.240
  49.00   17.617   73.863   75.935   75.816    0.302    1.130    1.169    1.154
  50.00   18.291   71.300   73.609   73.484    0.279    1.055    1.091    1.077
  51.00   18.875   68.837   71.378   71.249    0.259    0.988    1.021    1.007
  52.00   19.379   66.469   69.237   69.104    0.240    0.926    0.957    0.943
  53.00   19.810   64.194   67.181   67.046    0.222    0.871    0.899    0.886
  54.00   20.174   62.009   65.209   65.071    0.206    0.821    0.846    0.833
  55.00   20.478   59.911   63.314   63.175    0.191    0.775    0.799    0.786
  56.00   20.727   57.896   61.494   61.355    0.178    0.734    0.756    0.744
  57.00   20.926   55.960   59.745   59.606    0.165    0.698    0.717    0.706
  58.00   21.080   54.102   58.064   57.925    0.154    0.665    0.682    0.671
  59.00   21.193   52.318   56.448   56.310    0.143    0.635    0.651    0.641
  60.00   21.269   50.605   54.893   54.756    0.133    0.608    0.623    0.613
  61.00   21.312   48.960   53.397   53.262    0.124    0.584    0.597    0.588
  62.00   21.324   47.380   51.958   51.824    0.116    0.563    0.575    0.566
  63.00   21.310   45.863   50.572   50.440    0.108    0.544    0.554    0.547
  64.00   21.271   44.406   49.237   49.107    0.101    0.527    0.536    0.529
  65.00   21.210   43.006   47.951   47.823    0.094    0.511    0.520    0.513
  66.00   21.129   41.660   46.712   46.587    0.088    0.497    0.505    0.499
  67.00   21.031   40.368   45.518   45.395    0.082    0.485    0.492    0.486
  68.00   20.918   39.125   44.366   44.245    0.077    0.473    0.480    0.474
  69.00   20.790   37.931   43.255   43.137    0.072    0.463    0.469    0.464
  70.00   20.650   36.783   42.183   42.067    0.068    0.454    0.459    0.454
  71.00   20.499   35.679   41.148   41.035    0.064    0.445    0.450    0.446
  72.00   20.338   34.617   40.149   40.038    0.060    0.437    0.441    0.438
  73.00   20.168   33.595   39.184   39.076    0.057    0.430    0.433    0.430
  74.00   19.992   32.611   38.251   38.146    0.053    0.423    0.426    0.423
  75.00   19.809   31.665   37.350   37.248    0.050    0.416    0.420    0.417
  76.00   19.620   30.754   36.479   36.379    0.047    0.410    0.413    0.411
  77.00   19.427   29.877   35.637   35.540    0.045    0.405    0.407    0.405
  78.00   19.229   29.032   34.823   34.728    0.042    0.399    0.402    0.400
  79.00   19.029   28.218   34.034   33.942    0.040    0.394    0.396    0.395
  80.00   18.825   27.434   33.272   33.181    0.038    0.389    0.391    0.390
  81.00   18.620   26.678   32.533   32.445    0.036    0.385    0.386    0.385
  82.00   18.413   25.949   31.818   31.732    0.034    0.380    0.382    0.380
  83.00   18.205   25.246   31.125   31.042    0.033    0.376    0.377    0.376
  84.00   17.995   24.568   30.454   30.373    0.031    0.371    0.373    0.371
  85.00   17.786   23.914   29.803   29.725    0.030    0.367    0.368    0.367
  86.00   17.577   23.283   29.173   29.096    0.029    0.363    0.364    0.363
  87.00   17.367   22.674   28.561   28.487    0.027    0.359    0.360    0.359
  88.00   17.159   22.086   27.968   27.895    0.026    0.355    0.356    0.355
  89.00   16.951   21.518   27.392   27.322    0.025    0.351    0.352    0.351
  90.00   16.744   20.969   26.834   26.765    0.024    0.347    0.348    0.347
  91.00   16.538   20.439   26.292   26.225    0.023    0.343    0.344    0.343
  92.00   16.334   19.926   25.765   25.701    0.022    0.339    0.340    0.340
  93.00   16.131   19.431   25.254   25.191    0.021    0.336    0.336    0.336
  94.00   15.929   18.952   24.758   24.696    0.021    0.332    0.333    0.332
  95.00   15.730   18.489   24.275   24.216    0.020    0.328    0.329    0.329
  96.00   15.532   18.041   23.806   23.748    0.019    0.325    0.325    0.325
  97.00   15.336   17.608   23.350   23.294    0.019    0.321    0.322    0.321
  98.00   15.143   17.188   22.907   22.852    0.018    0.318    0.318    0.318
  99.00   14.951   16.782   22.476   22.423    0.017    0.314    0.315    0.314
 100.00   14.762   16.389   22.057   22.005    0.017    0.311    0.311    0.311
 101.00   14.574   16.008   21.649   21.598    0.016    0.307    0.308    0.308
 102.00   14.390   15.639   21.251   21.203    0.016    0.304    0.304    0.304
 103.00   14.207   15.281   20.865   20.818    0.016    0.301    0.301    0.301
 104.00   14.027   14.934   20.489   20.443    0.015    0.297    0.298    0.298
 105.00   13.849   14.599   20.122   20.077    0.015    0.294    0.294    0.294
 106.00   13.673   14.273   19.765   19.722    0.014    0.291    0.291    0.291
 107.00   13.500   13.957   19.418   19.375    0.014    0.288    0.288    0.288
 108.00   13.329   13.651   19.079   19.037    0.014    0.284    0.285    0.285
 109.00   13.160   13.353   18.748   18.708    0.013    0.281    0.282    0.282
 110.00   12.994   13.065   18.427   18.388    0.013    0.278    0.279    0.278
 111.00   12.831   12.785   18.113   18.075    0.013    0.275    0.275    0.275
 112.00   12.669   12.513   17.807   17.770    0.012    0.272    0.272    0.272
 113.00   12.510   12.249   17.508   17.472    0.012    0.269    0.269    0.269
 114.00   12.354   11.992   17.217   17.182    0.012    0.266    0.266    0.266
 115.00   12.199   11.743   16.933   16.899    0.012    0.263    0.264    0.263
 116.00   12.047   11.501   16.655   16.622    0.011    0.260    0.261    0.261
 117.00   11.897   11.266   16.385   16.353    0.011    0.258    0.258    0.258
 118.00   11.750   11.037   16.120   16.089    0.011    0.255    0.255    0.255
 119.00   11.604   10.815   15.862   15.832    0.011    0.252    0.252    0.252
 120.00   11.461   10.598   15.610   15.581    0.010    0.249    0.249    0.249
 121.00   11.320   10.388   15.364   15.335    0.010    0.246    0.247    0.247
 122.00   11.182   10.183   15.124   15.096    0.010    0.244    0.244    0.244
 123.00   11.045    9.984   14.889   14.862    0.010    0.241    0.241    0.241
 124.00   10.911    9.791   14.659   14.633    0.010    0.238    0.239    0.239
 125.00   10.778    9.602   14.435   14.409    0.009    0.236    0.236    0.236
 126.00   10.648    9.418   14.216   14.190    0.009    0.233    0.233    0.233
 127.00   10.519    9.240   14.001   13.977    0.009    0.231    0.231    0.231
 128.00   10.393    9.066   13.791   13.767    0.009    0.228    0.228    0.228
 129.00   10.269    8.896   13.586   13.563    0.009    0.226    0.226    0.226
 130.00   10.146    8.731   13.386   13.363    0.009    0.223    0.224    0.224
 131.00   10.026    8.570   13.189   13.167    0.008    0.221    0.221    0.221
 132.00    9.907    8.413   12.997   12.976    0.008    0.219    0.219    0.219
 133.00    9.790    8.260   12.809   12.788    0.008    0.216    0.216    0.216
 134.00    9.675    8.111   12.625   12.605    0.008    0.214    0.214    0.214
 135.00    9.562    7.966   12.445   12.425    0.008    0.212    0.212    0.212
 136.00    9.451    7.824   12.269   12.249    0.008    0.210    0.210    0.210
 137.00    9.341    7.685   12.096   12.077    0.008    0.207    0.207    0.207
 138.00    9.233    7.551   11.927   11.909    0.007    0.205    0.205    0.205
 139.00    9.127    7.419   11.762   11.744    0.007    0.203    0.203    0.203
 140.00    9.022    7.291   11.599   11.582    0.007    0.201    0.201    0.201
 141.00    8.919    7.165   11.441   11.423    0.007    0.199    0.199    0.199
 142.00    8.817    7.043   11.285   11.268    0.007    0.197    0.197    0.197
 143.00    8.717    6.923   11.132   11.116    0.007    0.195    0.195    0.195
 144.00    8.619    6.807   10.983   10.967    0.007    0.193    0.193    0.193
 145.00    8.522    6.693   10.836   10.821    0.007    0.191    0.191    0.191
 146.00    8.427    6.582   10.692   10.677    0.007    0.189    0.189    0.189
 147.00    8.333    6.473   10.552   10.537    0.006    0.187    0.187    0.187
 148.00    8.240    6.367   10.413   10.399    0.006    0.185    0.185    0.185
 149.00    8.149    6.263   10.278   10.264    0.006    0.183    0.183    0.183
 150.00    8.060    6.161   10.145   10.131    0.006    0.181    0.181    0.181
