ROW4TEST
trialrun
ROW4TEST.FLD

 DIST    B Horz   B Vert   B PROD    B MAX   E Horz   E Vert   E PROD    E MAX
 (Ft)     (mG)     (mG)     (mG)      (mG)   (kV/m)   (kV/m)   (kV/m)   (V/m)
 ----    ------   ------   ------    -----   ------   ------   ------   ------
-150.00   10.798    7.137   12.943   12.143    0.197    1.217    1.233    1.229
-149.00   11.107    7.223   13.249   12.414    0.206    1.276    1.292    1.289
-148.00   11.426    7.308   13.563   12.693    0.215    1.337    1.355    1.351
-147.00   11.755    7.392   13.886   12.980    0.225    1.402    1.420    1.416
-146.00   12.096    7.473   14.218   13.275    0.235    1.470    1.488    1.484
-145.00   12.447    7.551   14.558   13.579    0.245    1.541    1.560    1.556
-144.00   12.810    7.625   14.908   13.891    0.255    1.615    1.635    1.631
-143.00   13.184    7.696   15.266   14.212    0.265    1.692    1.713    1.709
-142.00   13.570    7.763   15.633   14.541    0.276    1.773    1.794    1.790
-141.00   13.967    7.825   16.009   14.879    0.286    1.857    1.879    1.875
-140.00   14.375    7.882   16.394   15.225    0.296    1.945    1.967    1.963
-139.00   14.793    7.934   16.787   15.579    0.306    2.036    2.059    2.055
-138.00   15.223    7.980   17.187   15.942    0.316    2.130    2.154    2.149
-137.00   15.662    8.020   17.596   16.312    0.325    2.228    2.251    2.247
-136.00   16.110    8.056   18.012   16.690    0.334    2.328    2.352    2.348
-135.00   16.566    8.087   18.435   17.075    0.342    2.431    2.455    2.451
-134.00   17.029    8.114   18.864   17.466    0.350    2.537    2.561    2.557
-133.00   17.497    8.140   19.298   17.863    0.356    2.645    2.669    2.665
-132.00   17.969    8.166   19.737   18.265    0.361    2.755    2.779    2.775
-131.00   18.441    8.196   20.181   18.671    0.365    2.867    2.890    2.886
-130.00   18.913    8.232   20.626   19.080    0.368    2.979    3.002    2.998
-129.00   19.379    8.280   21.074   19.492    0.368    3.093    3.114    3.111
-128.00   19.838    8.346   21.522   19.903    0.367    3.206    3.227    3.223
-127.00   20.285    8.435   21.969   20.314    0.364    3.318    3.338    3.334
-126.00   20.716    8.556   22.413   20.722    0.359    3.428    3.447    3.443
-125.00   21.126    8.715   22.853   21.127    0.352    3.537    3.554    3.551
-124.00   21.511    8.920   23.287   21.525    0.343    3.642    3.658    3.654
-123.00   21.866    9.178   23.714   21.914    0.331    3.743    3.757    3.754
-122.00   22.183    9.496   24.130   22.294    0.317    3.838    3.851    3.848
-121.00   22.459    9.878   24.535   22.661    0.302    3.928    3.940    3.936
-120.00   22.687   10.326   24.926   23.013    0.284    4.011    4.021    4.017
-119.00   22.861   10.840   25.301   23.349    0.266    4.085    4.094    4.090
-118.00   22.975   11.421   25.657   23.664    0.247    4.150    4.158    4.154
-117.00   23.025   12.062   25.993   23.957    0.228    4.206    4.212    4.208
-116.00   23.006   12.759   26.307   24.226    0.212    4.250    4.255    4.252
-115.00   22.913   13.504   26.596   24.468    0.200    4.283    4.288    4.284
-114.00   22.744   14.288   26.859   24.681    0.195    4.304    4.308    4.304
-113.00   22.496   15.100   27.094   24.862    0.197    4.312    4.316    4.312
-112.00   22.168   15.931   27.299   25.011    0.207    4.306    4.311    4.306
-111.00   21.762   16.769   27.473   25.124    0.225    4.288    4.293    4.288
-110.00   21.279   17.601   27.615   25.201    0.249    4.256    4.263    4.257
-109.00   20.725   18.414   27.724   25.239    0.276    4.211    4.220    4.213
-108.00   20.104   19.198   27.798   25.238    0.307    4.153    4.164    4.157
-107.00   19.428   19.939   27.839   25.197    0.339    4.083    4.097    4.089
-106.00   18.706   20.626   27.845   25.116    0.370    4.001    4.018    4.009
-105.00   17.955   21.246   27.817   24.994    0.401    3.909    3.930    3.920
-104.00   17.192   21.789   27.754   24.831    0.431    3.808    3.833    3.821
-103.00   16.439   22.244   27.659   24.628    0.458    3.699    3.728    3.714
-102.00   15.721   22.601   27.531   24.386    0.483    3.584    3.616    3.601
-101.00   15.066   22.852   27.372   24.106    0.504    3.464    3.501    3.482
-100.00   14.506   22.988   27.182   23.791    0.522    3.341    3.382    3.361
 -99.00   14.071   23.003   26.965   23.445    0.537    3.217    3.262    3.238
 -98.00   13.787   22.890   26.721   23.071    0.548    3.095    3.143    3.115
 -97.00   13.675   22.644   26.453   22.676    0.555    2.975    3.026    2.995
 -96.00   13.744   22.262   26.163   22.268    0.558    2.860    2.914    2.879
 -95.00   13.989   21.743   25.854   21.859    0.557    2.752    2.808    2.770
 -94.00   14.395   21.084   25.529   21.461    0.552    2.653    2.710    2.668
 -93.00   14.935   20.287   25.192   21.093    0.543    2.565    2.621    2.577
 -92.00   15.577   19.355   24.845   20.773    0.529    2.487    2.543    2.496
 -91.00   16.287   18.294   24.494   20.518    0.512    2.422    2.475    2.428
 -90.00   17.031   17.111   24.142   20.340    0.491    2.368    2.419    2.373
 -89.00   17.778   15.817   23.795   20.243    0.467    2.327    2.373    2.329
 -88.00   18.497   14.428   23.459   20.223    0.439    2.296    2.338    2.297
 -87.00   19.163   12.968   23.139   20.269    0.408    2.274    2.311    2.275
 -86.00   19.753   11.469   22.842   20.369    0.375    2.260    2.291    2.261
 -85.00   20.247    9.980   22.574   20.512    0.339    2.252    2.277    2.252
 -84.00   20.629    8.581   22.342   20.686    0.300    2.247    2.267    2.247
 -83.00   20.883    7.397   22.155   20.885    0.261    2.244    2.259    2.244
 -82.00   21.001    6.615   22.018   21.100    0.220    2.240    2.251    2.240
 -81.00   20.973    6.437   21.939   21.329    0.180    2.234    2.241    2.234
 -80.00   20.798    6.939   21.925   21.567    0.141    2.224    2.229    2.225
 -79.00   20.473    8.000   21.980   21.812    0.107    2.210    2.213    2.211
 -78.00   20.003    9.423   22.112   22.064    0.084    2.191    2.193    2.192
 -77.00   19.397   11.047   22.322   22.322    0.083    2.166    2.167    2.167
 -76.00   18.667   12.767   22.615   22.586    0.103    2.135    2.138    2.137
 -75.00   17.832   14.512   22.991   22.860    0.135    2.099    2.103    2.102
 -74.00   16.921   16.237   23.451   23.146    0.170    2.058    2.065    2.062
 -73.00   15.970   17.908   23.995   23.447    0.206    2.014    2.024    2.018
 -72.00   15.027   19.502   24.620   23.769    0.242    1.967    1.982    1.972
 -71.00   14.156   20.997   25.324   24.117    0.276    1.919    1.939    1.924
 -70.00   13.437   22.380   26.104   24.501    0.308    1.873    1.898    1.878
 -69.00   12.960   23.636   26.956   24.928    0.338    1.830    1.861    1.834
 -68.00   12.814   24.758   27.877   25.410    0.366    1.793    1.830    1.796
 -67.00   13.065   25.737   28.863   25.958    0.391    1.764    1.807    1.766
 -66.00   13.740   26.568   29.910   26.584    0.413    1.747    1.795    1.747
 -65.00   14.816   27.247   31.015   27.297    0.433    1.742    1.795    1.742
 -64.00   16.241   27.773   32.173   28.105    0.450    1.751    1.808    1.752
 -63.00   17.948   28.146   33.382   29.014    0.464    1.776    1.836    1.779
 -62.00   19.875   28.369   34.638   30.022    0.475    1.817    1.878    1.822
 -61.00   21.966   28.444   35.939   31.124    0.483    1.872    1.933    1.881
 -60.00   24.176   28.379   37.281   32.313    0.489    1.942    2.002    1.955
 -59.00   26.466   28.183   38.661   33.578    0.492    2.023    2.082    2.040
 -58.00   28.804   27.866   40.078   34.909    0.492    2.115    2.172    2.134
 -57.00   31.165   27.446   41.527   36.296    0.489    2.215    2.269    2.236
 -56.00   33.523   26.942   43.007   37.728    0.484    2.321    2.371    2.343
 -55.00   35.857   26.380   44.515   39.198    0.475    2.431    2.477    2.453
 -54.00   38.147   25.791   46.047   40.698    0.465    2.542    2.584    2.563
 -53.00   40.375   25.214   47.601   42.220    0.451    2.653    2.692    2.673
 -52.00   42.522   24.697   49.174   43.759    0.436    2.763    2.797    2.780
 -51.00   44.571   24.292   50.761   45.309    0.419    2.868    2.898    2.884
 -50.00   46.504   24.058   52.359   46.863    0.400    2.968    2.995    2.981
 -49.00   48.307   24.053   53.964   48.418    0.380    3.061    3.085    3.072
 -48.00   49.963   24.330   55.572   49.967    0.360    3.146    3.167    3.155
 -47.00   51.459   24.929   57.179   51.506    0.340    3.222    3.240    3.228
 -46.00   52.781   25.871   58.781   53.028    0.323    3.287    3.303    3.291
 -45.00   53.919   27.157   60.372   54.530    0.309    3.341    3.355    3.343
 -44.00   54.861   28.769   61.947   56.007    0.301    3.382    3.395    3.383
 -43.00   55.603   30.675   63.503   57.452    0.298    3.410    3.424    3.411
 -42.00   56.138   32.831   65.033   58.862    0.304    3.426    3.439    3.426
 -41.00   56.465   35.193   66.534   60.232    0.316    3.428    3.442    3.428
 -40.00   56.585   37.713   68.001   61.557    0.335    3.416    3.432    3.416
 -39.00   56.503   40.346   69.429   62.833    0.360    3.391    3.410    3.392
 -38.00   56.228   43.047   70.814   64.058    0.388    3.354    3.376    3.356
 -37.00   55.770   45.778   72.152   65.226    0.419    3.304    3.331    3.308
 -36.00   55.146   48.501   73.440   66.337    0.451    3.244    3.275    3.250
 -35.00   54.372   51.184   74.673   67.387    0.483    3.174    3.210    3.181
 -34.00   53.470   53.797   75.850   68.375    0.514    3.095    3.137    3.105
 -33.00   52.463   56.317   76.967   69.300    0.543    3.009    3.058    3.021
 -32.00   51.375   58.720   78.022   70.162    0.570    2.919    2.974    2.932
 -31.00   50.232   60.991   79.014   70.960    0.595    2.825    2.887    2.839
 -30.00   49.060   63.116   79.941   71.695    0.616    2.729    2.798    2.745
 -29.00   47.883   65.085   80.801   72.369    0.634    2.635    2.710    2.650
 -28.00   46.723   66.892   81.594   72.984    0.648    2.542    2.623    2.557
 -27.00   45.602   68.533   82.319   73.541    0.660    2.453    2.540    2.467
 -26.00   44.536   70.010   82.975   74.044    0.668    2.370    2.462    2.383
 -25.00   43.539   71.324   83.563   74.494    0.674    2.293    2.390    2.304
 -24.00   42.621   72.479   84.081   74.896    0.678    2.224    2.325    2.233
 -23.00   41.787   73.480   84.531   75.252    0.680    2.164    2.268    2.171
 -22.00   41.042   74.334   84.912   75.564    0.681    2.112    2.219    2.118
 -21.00   40.388   75.046   85.224   75.837    0.680    2.070    2.179    2.074
 -20.00   39.826   75.621   85.467   76.071    0.680    2.037    2.148    2.039
 -19.00   39.356   76.064   85.642   76.268    0.680    2.014    2.126    2.015
 -18.00   38.984   76.375   85.749   76.430    0.680    2.000    2.113    2.000
 -17.00   38.712   76.556   85.788   76.557    0.681    1.996    2.109    1.996
 -16.00   38.550   76.606   85.759   76.648    0.682    2.002    2.115    2.002
 -15.00   38.506   76.520   85.662   76.704    0.683    2.018    2.130    2.019
 -14.00   38.591   76.293   85.498   76.722    0.685    2.044    2.155    2.046
 -13.00   38.816   75.919   85.267   76.699    0.686    2.080    2.190    2.085
 -12.00   39.192   75.389   84.968   76.635    0.686    2.127    2.235    2.134
 -11.00   39.724   74.696   84.602   76.525    0.684    2.185    2.289    2.194
 -10.00   40.415   73.831   84.169   76.367    0.681    2.252    2.353    2.263
  -9.00   41.261   72.788   83.669   76.157    0.675    2.328    2.424    2.342
  -8.00   42.251   71.559   83.102   75.892    0.666    2.412    2.502    2.427
  -7.00   43.370   70.143   82.468   75.569    0.654    2.503    2.587    2.519
  -6.00   44.596   68.535   81.767   75.186    0.639    2.598    2.675    2.614
  -5.00   45.902   66.738   81.000   74.738    0.620    2.695    2.766    2.712
  -4.00   47.260   64.756   80.167   74.226    0.597    2.794    2.857    2.810
  -3.00   48.637   62.595   79.270   73.646    0.572    2.892    2.948    2.906
  -2.00   50.002   60.265   78.308   72.997    0.543    2.986    3.035    2.998
  -1.00   51.323   57.780   77.283   72.280    0.512    3.075    3.117    3.086
   0.00   52.572   55.156   76.197   71.494    0.478    3.157    3.193    3.166
   1.00   53.720   52.410   75.051   70.640    0.443    3.230    3.261    3.237
   2.00   54.745   49.564   73.848   69.719    0.408    3.294    3.319    3.299
   3.00   55.625   46.640   72.591   68.733    0.374    3.346    3.367    3.349
   4.00   56.344   43.663   71.282   67.684    0.341    3.386    3.404    3.388
   5.00   56.891   40.657   69.925   66.575    0.311    3.414    3.428    3.414
   6.00   57.255   37.648   68.523   65.411    0.286    3.427    3.439    3.428
   7.00   57.432   34.662   67.081   64.194    0.268    3.428    3.438    3.428
   8.00   57.421   31.725   65.602   62.928    0.257    3.414    3.424    3.415
   9.00   57.224   28.861   64.090   61.619    0.254    3.387    3.397    3.388
  10.00   56.847   26.096   62.551   60.271    0.258    3.347    3.357    3.349
  11.00   56.298   23.455   60.988   58.889    0.268    3.294    3.305    3.298
  12.00   55.585   20.962   59.406   57.478    0.282    3.229    3.242    3.236
  13.00   54.723   18.640   57.811   56.042    0.298    3.154    3.168    3.162
  14.00   53.723   16.516   56.205   54.587    0.315    3.068    3.084    3.079
  15.00   52.601   14.614   54.594   53.118    0.331    2.973    2.992    2.987
  16.00   51.372   12.961   52.982   51.640    0.346    2.871    2.892    2.887
  17.00   50.051   11.579   51.373   50.157    0.359    2.761    2.785    2.781
  18.00   48.654   10.490   49.771   48.675    0.369    2.646    2.672    2.668
  19.00   47.196    9.697   48.182   47.196    0.377    2.527    2.555    2.552
  20.00   45.693    9.190   46.608   45.727    0.382    2.404    2.434    2.431
  21.00   44.159    8.932   45.053   44.272    0.384    2.280    2.312    2.309
  22.00   42.609    8.872   43.523   42.833    0.383    2.154    2.188    2.185
  23.00   41.055    8.952   42.019   41.417    0.379    2.028    2.063    2.061
  24.00   39.510    9.114   40.548   40.026    0.373    1.903    1.939    1.937
  25.00   37.986    9.316   39.111   38.664    0.364    1.780    1.817    1.815
  26.00   36.493    9.522   37.715   37.337    0.353    1.660    1.697    1.696
  27.00   35.040    9.711   36.361   36.046    0.340    1.543    1.580    1.579
  28.00   33.638    9.867   35.055   34.797    0.326    1.430    1.467    1.466
  29.00   32.292    9.983   33.800   33.593    0.310    1.322    1.358    1.358
  30.00   31.010   10.056   32.599   32.437    0.294    1.219    1.254    1.254
  31.00   29.797   10.084   31.457   31.333    0.277    1.123    1.157    1.156
  32.00   28.658   10.071   30.376   30.284    0.259    1.033    1.065    1.064
  33.00   27.596   10.021   29.359   29.293    0.242    0.951    0.981    0.979
  34.00   26.614    9.937   28.409   28.363    0.224    0.877    0.905    0.901
  35.00   25.714    9.827   27.527   27.496    0.207    0.812    0.838    0.832
  36.00   24.894    9.695   26.715   26.695    0.190    0.757    0.781    0.772
  37.00   24.154    9.549   25.973   25.960    0.174    0.713    0.734    0.723
  38.00   23.492    9.395   25.301   25.293    0.158    0.680    0.698    0.686
  39.00   22.904    9.241   24.698   24.692    0.144    0.658    0.674    0.660
  40.00   22.386    9.093   24.162   24.158    0.129    0.647    0.660    0.647
  41.00   21.932    8.959   23.691   23.688    0.116    0.646    0.656    0.646
  42.00   21.537    8.845   23.282   23.278    0.105    0.653    0.661    0.654
  43.00   21.193    8.757   22.931   22.926    0.095    0.667    0.674    0.669
  44.00   20.894    8.701   22.633   22.625    0.086    0.686    0.692    0.689
  45.00   20.632    8.681   22.384   22.372    0.081    0.709    0.714    0.713
  46.00   20.401    8.699   22.179   22.161    0.077    0.735    0.739    0.739
  47.00   20.194    8.757   22.011   21.985    0.076    0.762    0.766    0.766
  48.00   20.004    8.854   21.876   21.840    0.076    0.789    0.793    0.793
  49.00   19.825    8.990   21.768   21.719    0.078    0.816    0.820    0.820
  50.00   19.650    9.162   21.681   21.618    0.079    0.843    0.846    0.846
  51.00   19.475    9.365   21.610   21.531    0.081    0.868    0.871    0.870
  52.00   19.295    9.598   21.550   21.455    0.082    0.891    0.895    0.893
  53.00   19.104    9.854   21.496   21.383    0.082    0.912    0.916    0.914
  54.00   18.899   10.131   21.444   21.314    0.081    0.930    0.934    0.932
  55.00   18.675   10.425   21.388   21.242    0.080    0.946    0.949    0.947
  56.00   18.430   10.731   21.326   21.165    0.079    0.958    0.961    0.958
  57.00   18.159   11.045   21.254   21.080    0.078    0.966    0.969    0.966
  58.00   17.860   11.365   21.169   20.984    0.078    0.970    0.973    0.970
  59.00   17.532   11.685   21.069   20.874    0.080    0.970    0.973    0.970
  60.00   17.172   12.003   20.952   20.750    0.084    0.965    0.969    0.965
  61.00   16.781   12.315   20.815   20.608    0.089    0.956    0.960    0.956
  62.00   16.358   12.618   20.659   20.448    0.096    0.941    0.946    0.943
  63.00   15.904   12.906   20.482   20.269    0.105    0.923    0.928    0.925
  64.00   15.420   13.178   20.284   20.071    0.114    0.899    0.906    0.902
  65.00   14.907   13.430   20.064   19.852    0.124    0.871    0.880    0.876
  66.00   14.368   13.659   19.824   19.613    0.134    0.840    0.850    0.845
  67.00   13.805   13.861   19.563   19.354    0.144    0.805    0.817    0.812
  68.00   13.221   14.035   19.282   19.076    0.153    0.766    0.782    0.775
  69.00   12.619   14.179   18.981   18.778    0.161    0.726    0.744    0.736
  70.00   12.002   14.290   18.661   18.462    0.169    0.684    0.705    0.695
  71.00   11.374   14.367   18.324   18.127    0.176    0.642    0.665    0.654
  72.00   10.738   14.408   17.970   17.776    0.181    0.600    0.626    0.612
  73.00   10.098   14.413   17.599   17.407    0.185    0.559    0.589    0.571
  74.00    9.457   14.381   17.212   17.023    0.188    0.522    0.555    0.533
  75.00    8.819   14.311   16.810   16.623    0.190    0.489    0.524    0.497
  76.00    8.187   14.203   16.394   16.207    0.190    0.462    0.500    0.468
  77.00    7.565   14.057   15.964   15.778    0.189    0.443    0.482    0.446
  78.00    6.957   13.873   15.520   15.334    0.187    0.434    0.472    0.434
  79.00    6.367   13.651   15.063   14.876    0.183    0.433    0.470    0.433
  80.00    5.799   13.392   14.594   14.406    0.178    0.441    0.476    0.443
  81.00    5.258   13.096   14.112   13.922    0.172    0.458    0.489    0.462
  82.00    4.749   12.765   13.620   13.426    0.164    0.480    0.507    0.486
  83.00    4.276   12.399   13.116   12.919    0.154    0.506    0.529    0.513
  84.00    3.844   12.001   12.602   12.400    0.144    0.535    0.554    0.542
  85.00    3.460   11.573   12.079   11.872    0.132    0.565    0.580    0.572
  86.00    3.126   11.117   11.548   11.334    0.119    0.594    0.606    0.600
  87.00    2.847   10.636   11.011   10.789    0.104    0.621    0.630    0.626
  88.00    2.622   10.134   10.468   10.238    0.089    0.646    0.652    0.650
  89.00    2.451    9.615    9.923    9.682    0.073    0.668    0.672    0.670
  90.00    2.328    9.083    9.376    9.125    0.056    0.685    0.688    0.687
  91.00    2.244    8.543    8.832    8.568    0.039    0.698    0.699    0.699
  92.00    2.191    7.999    8.294    8.013    0.022    0.707    0.707    0.707
  93.00    2.161    7.457    7.764    7.466    0.005    0.711    0.711    0.711
  94.00    2.145    6.922    7.247    6.928    0.013    0.710    0.710    0.710
  95.00    2.140    6.399    6.747    6.404    0.029    0.704    0.704    0.704
  96.00    2.145    5.893    6.271    5.899    0.045    0.694    0.695    0.695
  97.00    2.160    5.408    5.823    5.419    0.060    0.680    0.682    0.681
  98.00    2.189    4.948    5.411    4.969    0.074    0.662    0.666    0.664
  99.00    2.236    4.518    5.041    4.559    0.086    0.641    0.647    0.644
 100.00    2.305    4.119    4.720    4.199    0.097    0.618    0.626    0.622
 101.00    2.400    3.754    4.456    3.904    0.107    0.594    0.603    0.598
 102.00    2.522    3.426    4.254    3.690    0.115    0.569    0.580    0.573
 103.00    2.670    3.134    4.117    3.572    0.122    0.544    0.557    0.549
 104.00    2.843    2.879    4.046    3.548    0.127    0.520    0.535    0.524
 105.00    3.036    2.661    4.038    3.604    0.131    0.498    0.515    0.502
 106.00    3.246    2.480    4.085    3.717    0.133    0.480    0.498    0.483
 107.00    3.467    2.333    4.179    3.872    0.134    0.465    0.484    0.467
 108.00    3.694    2.219    4.310    4.054    0.133    0.454    0.474    0.455
 109.00    3.924    2.137    4.469    4.253    0.132    0.448    0.467    0.449
 110.00    4.152    2.085    4.647    4.464    0.129    0.447    0.465    0.447
 111.00    4.375    2.061    4.836    4.679    0.126    0.450    0.467    0.450
 112.00    4.590    2.062    5.032    4.894    0.121    0.457    0.472    0.457
 113.00    4.794    2.086    5.228    5.106    0.116    0.466    0.481    0.468
 114.00    4.984    2.132    5.421    5.312    0.110    0.479    0.491    0.480
 115.00    5.160    2.197    5.609    5.510    0.104    0.492    0.503    0.494
 116.00    5.320    2.280    5.788    5.698    0.098    0.507    0.517    0.509
 117.00    5.464    2.377    5.958    5.876    0.091    0.522    0.530    0.524
 118.00    5.590    2.486    6.118    6.041    0.084    0.537    0.544    0.539
 119.00    5.698    2.606    6.266    6.195    0.077    0.552    0.557    0.553
 120.00    5.788    2.734    6.402    6.336    0.071    0.565    0.569    0.566
 121.00    5.861    2.868    6.526    6.464    0.064    0.577    0.581    0.578
 122.00    5.917    3.007    6.638    6.580    0.057    0.588    0.591    0.589
 123.00    5.957    3.148    6.737    6.684    0.051    0.598    0.600    0.598
 124.00    5.980    3.290    6.825    6.775    0.045    0.606    0.608    0.606
 125.00    5.989    3.432    6.902    6.855    0.040    0.612    0.614    0.613
 126.00    5.983    3.571    6.968    6.923    0.035    0.618    0.618    0.618
 127.00    5.964    3.708    7.023    6.981    0.030    0.621    0.622    0.621
 128.00    5.933    3.841    7.068    7.029    0.027    0.623    0.624    0.623
 129.00    5.890    3.970    7.103    7.067    0.024    0.624    0.624    0.624
 130.00    5.838    4.093    7.129    7.095    0.022    0.623    0.624    0.623
 131.00    5.776    4.210    7.147    7.115    0.021    0.621    0.622    0.621
 132.00    5.706    4.321    7.157    7.127    0.020    0.618    0.619    0.619
 133.00    5.629    4.425    7.160    7.132    0.021    0.614    0.615    0.615
 134.00    5.545    4.522    7.155    7.129    0.021    0.609    0.610    0.610
 135.00    5.456    4.613    7.144    7.120    0.022    0.604    0.604    0.604
 136.00    5.362    4.696    7.128    7.105    0.024    0.597    0.598    0.597
 137.00    5.264    4.773    7.106    7.085    0.025    0.590    0.590    0.590
 138.00    5.163    4.843    7.079    7.059    0.026    0.582    0.583    0.582
 139.00    5.060    4.906    7.047    7.029    0.027    0.574    0.574    0.574
 140.00    4.954    4.962    7.012    6.995    0.028    0.565    0.565    0.565
 141.00    4.847    5.012    6.973    6.957    0.029    0.556    0.556    0.556
 142.00    4.739    5.056    6.930    6.915    0.029    0.546    0.547    0.547
 143.00    4.631    5.094    6.885    6.871    0.030    0.536    0.537    0.537
 144.00    4.523    5.127    6.836    6.824    0.030    0.526    0.527    0.527
 145.00    4.415    5.154    6.786    6.774    0.031    0.516    0.517    0.517
 146.00    4.307    5.176    6.733    6.723    0.031    0.506    0.507    0.507
 147.00    4.201    5.193    6.679    6.669    0.031    0.496    0.497    0.497
 148.00    4.095    5.205    6.623    6.614    0.031    0.486    0.487    0.487
 149.00    3.991    5.214    6.566    6.557    0.031    0.476    0.477    0.476
 150.00    3.889    5.218    6.508    6.500    0.031    0.465    0.466    0.466
